"Time (MJD)" Generic/Bessell.B Generic/Bessell.B_err Generic/Bessell.U Generic/Bessell.U_err Generic/Bessell.V Generic/Bessell.V_err SLOAN/SDSS.i SLOAN/SDSS.i_err SLOAN/SDSS.r SLOAN/SDSS.r_err Swift/UVOT.UVW1 Swift/UVOT.UVW1_err "Temp./1e3 (K)" "Temp. Err." "Radius/1e15 (cm)" "Radius Err." "Log10(Bol. Lum)" "Log10(Bol. Err)"
57530.180 -21.892 -0.031 -21.829 -0.026 -21.588 -0.020 -21.562 -0.018 -21.356 -0.019 -21.121 -0.022 16.594 1.157 2.636 0.202 44.574 44.077
57531.270 -21.910 -0.027 -21.870 -0.024 -21.635 -0.017 -21.613 -0.015 -21.413 -0.017 -21.178 -0.020 16.236 1.112 2.759 0.211 44.576 44.073
57532.190 -21.922 -0.025 -21.903 -0.022 -21.673 -0.015 -21.654 -0.014 -21.458 -0.015 -21.224 -0.019 15.941 1.075 2.866 0.218 44.577 44.068
57533.220 -21.932 -0.023 -21.938 -0.020 -21.713 -0.013 -21.697 -0.012 -21.506 -0.013 -21.272 -0.018 15.619 1.034 2.987 0.226 44.578 44.062
57534.180 -21.938 -0.021 -21.968 -0.019 -21.748 -0.012 -21.734 -0.011 -21.548 -0.013 -21.315 -0.017 15.327 0.994 3.100 0.234 44.577 44.055
57535.260 -21.941 -0.020 -21.998 -0.018 -21.785 -0.011 -21.773 -0.010 -21.592 -0.012 -21.361 -0.017 15.011 0.947 3.229 0.241 44.577 44.044
57536.230 -21.940 -0.019 -22.023 -0.017 -21.816 -0.010 -21.806 -0.010 -21.629 -0.012 -21.399 -0.017 14.739 0.903 3.344 0.246 44.575 44.031
57537.240 -21.936 -0.019 -22.046 -0.017 -21.847 -0.010 -21.837 -0.009 -21.664 -0.012 -21.436 -0.017 14.466 0.854 3.464 0.249 44.573 44.015
57538.170 -21.929 -0.019 -22.065 -0.016 -21.872 -0.009 -21.863 -0.009 -21.694 -0.012 -21.469 -0.017 14.224 0.808 3.574 0.251 44.571 43.998
57541.220 -21.884 -0.019 -22.110 -0.016 -21.941 -0.009 -21.933 -0.009 -21.777 -0.013 -21.559 -0.017 13.482 0.656 3.933 0.247 44.561 43.926
57542.200 -21.863 -0.019 -22.119 -0.015 -21.959 -0.009 -21.951 -0.008 -21.798 -0.013 -21.584 -0.018 13.256 0.608 4.047 0.243 44.557 43.898
57543.240 -21.838 -0.019 -22.125 -0.015 -21.975 -0.009 -21.966 -0.008 -21.817 -0.013 -21.607 -0.018 13.022 0.559 4.168 0.238 44.551 43.866
57544.160 -21.812 -0.019 -22.129 -0.015 -21.986 -0.009 -21.978 -0.008 -21.832 -0.014 -21.626 -0.019 12.818 0.518 4.275 0.233 44.546 43.836
57545.180 -21.780 -0.019 -22.129 -0.015 -21.997 -0.009 -21.988 -0.008 -21.846 -0.014 -21.644 -0.019 12.596 0.474 4.393 0.226 44.539 43.801
57546.280 -21.742 -0.019 -22.127 -0.015 -22.006 -0.009 -21.997 -0.008 -21.858 -0.014 -21.661 -0.020 12.360 0.432 4.520 0.220 44.531 43.763
57547.210 -21.707 -0.019 -22.122 -0.015 -22.011 -0.009 -22.001 -0.008 -21.866 -0.015 -21.673 -0.021 12.162 0.401 4.627 0.216 44.523 43.732
57548.180 -21.667 -0.019 -22.114 -0.016 -22.014 -0.010 -22.004 -0.009 -21.873 -0.015 -21.684 -0.022 11.957 0.374 4.738 0.214 44.515 43.703
57552.160 -21.476 -0.020 -22.056 -0.017 -22.002 -0.013 -21.993 -0.011 -21.877 -0.017 -21.709 -0.027 11.135 0.326 5.190 0.237 44.470 43.641
57556.190 -21.240 -0.024 -21.955 -0.021 -21.953 -0.018 -21.950 -0.015 -21.851 -0.019 -21.705 -0.032 10.377 0.325 5.609 0.294 44.415 43.628
57558.180 -21.110 -0.028 -21.890 -0.024 -21.916 -0.021 -21.918 -0.017 -21.828 -0.021 -21.693 -0.034 10.037 0.325 5.793 0.322 44.385 43.617
57559.170 -21.043 -0.030 -21.854 -0.025 -21.895 -0.022 -21.900 -0.019 -21.814 -0.022 -21.685 -0.034 9.877 0.323 5.878 0.334 44.370 43.609
57529.760 -21.884 -0.033 -21.812 -0.028 -21.569 -0.021 -21.542 -0.019 -21.333 -0.020 -21.099 -0.023 16.735 1.175 2.588 0.199 44.573 44.079
57531.690 -21.915 -0.026 -21.886 -0.023 -21.652 -0.016 -21.632 -0.014 -21.434 -0.016 -21.199 -0.019 16.101 1.095 2.808 0.214 44.577 44.071
57533.230 -21.932 -0.023 -21.938 -0.020 -21.713 -0.013 -21.697 -0.012 -21.507 -0.013 -21.273 -0.018 15.616 1.033 2.988 0.226 44.578 44.062
57537.600 -21.933 -0.019 -22.054 -0.016 -21.857 -0.010 -21.848 -0.009 -21.676 -0.012 -21.449 -0.017 14.372 0.837 3.507 0.250 44.573 44.009
57541.490 -21.879 -0.019 -22.113 -0.015 -21.946 -0.009 -21.939 -0.009 -21.783 -0.013 -21.566 -0.017 13.419 0.643 3.964 0.246 44.560 43.919
57543.380 -21.834 -0.019 -22.126 -0.015 -21.977 -0.009 -21.968 -0.008 -21.819 -0.013 -21.610 -0.018 12.991 0.553 4.185 0.237 44.551 43.861
57545.340 -21.775 -0.019 -22.129 -0.015 -21.999 -0.009 -21.990 -0.008 -21.848 -0.014 -21.646 -0.020 12.562 0.468 4.412 0.226 44.538 43.795
57547.380 -21.700 -0.019 -22.121 -0.015 -22.011 -0.009 -22.002 -0.008 -21.868 -0.015 -21.675 -0.021 12.126 0.396 4.647 0.215 44.522 43.726
57550.590 -21.557 -0.019 -22.084 -0.016 -22.011 -0.011 -22.002 -0.010 -21.879 -0.016 -21.703 -0.025 11.454 0.335 5.014 0.221 44.489 43.655
57556.880 -21.196 -0.025 -21.933 -0.022 -21.942 -0.019 -21.940 -0.016 -21.843 -0.020 -21.701 -0.033 10.256 0.326 5.675 0.304 44.405 43.625
57559.430 -21.025 -0.030 -21.844 -0.025 -21.889 -0.023 -21.895 -0.019 -21.811 -0.022 -21.683 -0.035 9.835 0.322 5.900 0.337 44.366 43.606
57562.190 -20.826 -0.036 -21.732 -0.030 -21.817 -0.028 -21.835 -0.024 -21.766 -0.024 -21.653 -0.036 9.413 0.310 6.119 0.361 44.321 43.569
57591.720 -18.650 -0.111 -20.012 -0.085 -20.518 -0.085 -20.927 -0.107 -21.113 -0.154 -21.065 -0.232 6.458 0.059 7.814 0.203 43.879 42.682
57595.030 -18.476 -0.129 -19.822 -0.097 -20.358 -0.097 -20.827 -0.131 -21.047 -0.194 -20.991 -0.294 6.340 0.104 7.663 0.370 43.830 42.897
57530.170 -21.892 -0.031 -21.828 -0.026 -21.587 -0.020 -21.562 -0.018 -21.356 -0.019 -21.121 -0.022 16.598 1.157 2.634 0.202 44.574 44.077
57531.280 -21.910 -0.027 -21.871 -0.024 -21.635 -0.017 -21.614 -0.015 -21.413 -0.017 -21.178 -0.020 16.233 1.111 2.761 0.211 44.576 44.073
57532.190 -21.922 -0.025 -21.903 -0.022 -21.673 -0.015 -21.654 -0.014 -21.458 -0.015 -21.224 -0.019 15.941 1.075 2.866 0.218 44.577 44.068
57533.220 -21.932 -0.023 -21.938 -0.020 -21.713 -0.013 -21.697 -0.012 -21.506 -0.013 -21.272 -0.018 15.619 1.034 2.987 0.226 44.578 44.062
57534.180 -21.938 -0.021 -21.968 -0.019 -21.748 -0.012 -21.734 -0.011 -21.548 -0.013 -21.315 -0.017 15.327 0.994 3.100 0.234 44.577 44.055
57535.140 -21.940 -0.020 -21.995 -0.018 -21.781 -0.011 -21.769 -0.010 -21.587 -0.012 -21.356 -0.017 15.046 0.953 3.214 0.240 44.577 44.045
57536.230 -21.940 -0.019 -22.023 -0.017 -21.816 -0.010 -21.806 -0.010 -21.629 -0.012 -21.399 -0.017 14.739 0.903 3.344 0.246 44.575 44.031
57537.230 -21.936 -0.019 -22.046 -0.017 -21.846 -0.010 -21.837 -0.009 -21.664 -0.012 -21.436 -0.017 14.469 0.855 3.463 0.249 44.573 44.015
57538.170 -21.929 -0.019 -22.065 -0.016 -21.872 -0.009 -21.863 -0.009 -21.694 -0.012 -21.469 -0.017 14.224 0.808 3.574 0.251 44.571 43.998
57541.210 -21.885 -0.019 -22.110 -0.016 -21.941 -0.009 -21.933 -0.009 -21.776 -0.013 -21.559 -0.017 13.484 0.656 3.932 0.247 44.561 43.926
57542.210 -21.863 -0.019 -22.119 -0.015 -21.959 -0.009 -21.951 -0.008 -21.798 -0.013 -21.584 -0.018 13.254 0.608 4.048 0.243 44.557 43.898
57543.230 -21.838 -0.019 -22.125 -0.015 -21.974 -0.009 -21.966 -0.008 -21.817 -0.013 -21.607 -0.018 13.024 0.560 4.167 0.238 44.551 43.866
57544.160 -21.812 -0.019 -22.129 -0.015 -21.986 -0.009 -21.978 -0.008 -21.832 -0.014 -21.626 -0.019 12.818 0.518 4.275 0.233 44.546 43.836
57545.180 -21.780 -0.019 -22.129 -0.015 -21.997 -0.009 -21.988 -0.008 -21.846 -0.014 -21.644 -0.019 12.596 0.474 4.393 0.226 44.539 43.801
57546.290 -21.742 -0.019 -22.127 -0.015 -22.006 -0.009 -21.997 -0.008 -21.858 -0.014 -21.661 -0.020 12.358 0.432 4.521 0.220 44.531 43.762
57547.200 -21.707 -0.019 -22.122 -0.015 -22.011 -0.009 -22.001 -0.008 -21.866 -0.014 -21.673 -0.021 12.164 0.401 4.626 0.216 44.524 43.732
57548.170 -21.668 -0.019 -22.115 -0.016 -22.014 -0.010 -22.004 -0.009 -21.873 -0.015 -21.684 -0.022 11.959 0.375 4.737 0.214 44.515 43.703
57552.160 -21.476 -0.020 -22.056 -0.017 -22.002 -0.013 -21.993 -0.011 -21.877 -0.017 -21.709 -0.027 11.135 0.326 5.190 0.237 44.470 43.641
57556.190 -21.240 -0.024 -21.955 -0.021 -21.953 -0.018 -21.950 -0.015 -21.851 -0.019 -21.705 -0.032 10.377 0.325 5.609 0.294 44.415 43.628
57558.180 -21.110 -0.028 -21.890 -0.024 -21.916 -0.021 -21.918 -0.017 -21.828 -0.021 -21.693 -0.034 10.037 0.325 5.793 0.322 44.385 43.617
57566.240 -20.517 -0.047 -21.541 -0.039 -21.689 -0.038 -21.732 -0.033 -21.688 -0.029 -21.596 -0.035 8.847 0.278 6.404 0.370 44.253 43.485
57575.190 -19.804 -0.072 -21.036 -0.060 -21.324 -0.060 -21.460 -0.053 -21.484 -0.048 -21.428 -0.045 7.764 0.188 7.021 0.348 44.106 43.247
57525.330 -21.766 -0.057 -21.610 -0.047 -21.349 -0.040 -21.299 -0.038 -21.064 -0.039 -20.835 -0.040 18.347 1.387 2.114 0.166 44.557 44.090
57531.280 -21.910 -0.027 -21.871 -0.024 -21.635 -0.017 -21.614 -0.015 -21.413 -0.017 -21.178 -0.020 16.233 1.111 2.761 0.211 44.576 44.073
57533.220 -21.932 -0.023 -21.938 -0.020 -21.713 -0.013 -21.697 -0.012 -21.506 -0.013 -21.272 -0.018 15.619 1.034 2.987 0.226 44.578 44.062
57534.180 -21.938 -0.021 -21.968 -0.019 -21.748 -0.012 -21.734 -0.011 -21.548 -0.013 -21.315 -0.017 15.327 0.994 3.100 0.234 44.577 44.055
57535.250 -21.941 -0.020 -21.998 -0.018 -21.785 -0.011 -21.773 -0.010 -21.592 -0.012 -21.360 -0.017 15.014 0.948 3.228 0.241 44.577 44.044
57537.230 -21.936 -0.019 -22.046 -0.017 -21.846 -0.010 -21.837 -0.009 -21.664 -0.012 -21.436 -0.017 14.469 0.855 3.463 0.249 44.573 44.015
57541.220 -21.884 -0.019 -22.110 -0.016 -21.941 -0.009 -21.933 -0.009 -21.777 -0.013 -21.559 -0.017 13.482 0.656 3.933 0.247 44.561 43.926
57542.210 -21.863 -0.019 -22.119 -0.015 -21.959 -0.009 -21.951 -0.008 -21.798 -0.013 -21.584 -0.018 13.254 0.608 4.048 0.243 44.557 43.898
57543.230 -21.838 -0.019 -22.125 -0.015 -21.974 -0.009 -21.966 -0.008 -21.817 -0.013 -21.607 -0.018 13.024 0.560 4.167 0.238 44.551 43.866
57546.290 -21.742 -0.019 -22.127 -0.015 -22.006 -0.009 -21.997 -0.008 -21.858 -0.014 -21.661 -0.020 12.358 0.432 4.521 0.220 44.531 43.762
57547.200 -21.707 -0.019 -22.122 -0.015 -22.011 -0.009 -22.001 -0.008 -21.866 -0.014 -21.673 -0.021 12.164 0.401 4.626 0.216 44.524 43.732
57548.170 -21.668 -0.019 -22.115 -0.016 -22.014 -0.010 -22.004 -0.009 -21.873 -0.015 -21.684 -0.022 11.959 0.375 4.737 0.214 44.515 43.703
57566.240 -20.517 -0.047 -21.541 -0.039 -21.689 -0.038 -21.732 -0.033 -21.688 -0.029 -21.596 -0.035 8.847 0.278 6.404 0.370 44.253 43.485
57575.190 -19.804 -0.072 -21.036 -0.060 -21.324 -0.060 -21.460 -0.053 -21.484 -0.048 -21.428 -0.045 7.764 0.188 7.021 0.348 44.106 43.247
57529.690 -21.883 -0.033 -21.809 -0.028 -21.566 -0.021 -21.538 -0.019 -21.330 -0.021 -21.095 -0.023 16.759 1.178 2.581 0.198 44.573 44.079
57531.680 -21.915 -0.026 -21.885 -0.023 -21.652 -0.016 -21.632 -0.014 -21.433 -0.016 -21.199 -0.019 16.104 1.095 2.807 0.214 44.577 44.071
57533.230 -21.932 -0.023 -21.938 -0.020 -21.713 -0.013 -21.697 -0.012 -21.507 -0.013 -21.273 -0.018 15.616 1.033 2.988 0.226 44.578 44.062
57537.600 -21.933 -0.019 -22.054 -0.016 -21.857 -0.010 -21.848 -0.009 -21.676 -0.012 -21.449 -0.017 14.372 0.837 3.507 0.250 44.573 44.009
57541.480 -21.879 -0.019 -22.113 -0.015 -21.946 -0.009 -21.938 -0.009 -21.782 -0.013 -21.566 -0.017 13.421 0.643 3.963 0.246 44.560 43.919
57543.410 -21.833 -0.019 -22.126 -0.015 -21.977 -0.009 -21.969 -0.008 -21.820 -0.013 -21.611 -0.018 12.984 0.551 4.188 0.237 44.550 43.860
57545.330 -21.775 -0.019 -22.129 -0.015 -21.999 -0.009 -21.990 -0.008 -21.848 -0.014 -21.646 -0.019 12.564 0.468 4.410 0.226 44.538 43.795
57547.370 -21.700 -0.019 -22.121 -0.015 -22.011 -0.009 -22.002 -0.008 -21.868 -0.015 -21.675 -0.021 12.128 0.396 4.645 0.215 44.522 43.727
57550.590 -21.557 -0.019 -22.084 -0.016 -22.011 -0.011 -22.002 -0.010 -21.879 -0.016 -21.703 -0.025 11.454 0.335 5.014 0.221 44.489 43.655
57556.870 -21.197 -0.025 -21.934 -0.022 -21.942 -0.019 -21.940 -0.016 -21.843 -0.020 -21.701 -0.033 10.258 0.326 5.674 0.304 44.405 43.625
57559.420 -21.025 -0.030 -21.845 -0.025 -21.889 -0.023 -21.895 -0.019 -21.811 -0.022 -21.683 -0.035 9.837 0.322 5.899 0.337 44.366 43.606
57562.180 -20.827 -0.036 -21.733 -0.030 -21.818 -0.028 -21.836 -0.024 -21.766 -0.024 -21.653 -0.036 9.415 0.310 6.118 0.361 44.321 43.569
57591.720 -18.650 -0.111 -20.012 -0.085 -20.518 -0.085 -20.927 -0.107 -21.113 -0.154 -21.065 -0.232 6.458 0.059 7.814 0.203 43.879 42.682
57595.020 -18.477 -0.129 -19.822 -0.097 -20.358 -0.097 -20.827 -0.131 -21.047 -0.194 -20.991 -0.294 6.340 0.104 7.664 0.369 43.830 42.896
57531.280 -21.910 -0.027 -21.871 -0.024 -21.635 -0.017 -21.614 -0.015 -21.413 -0.017 -21.178 -0.020 16.233 1.111 2.761 0.211 44.576 44.073
57533.210 -21.932 -0.023 -21.938 -0.020 -21.712 -0.013 -21.696 -0.012 -21.506 -0.013 -21.272 -0.018 15.622 1.034 2.985 0.226 44.578 44.062
57534.190 -21.938 -0.021 -21.968 -0.019 -21.748 -0.012 -21.735 -0.011 -21.548 -0.013 -21.315 -0.017 15.324 0.994 3.101 0.234 44.577 44.055
57535.260 -21.941 -0.020 -21.998 -0.018 -21.785 -0.011 -21.773 -0.010 -21.592 -0.012 -21.361 -0.017 15.011 0.947 3.229 0.241 44.577 44.044
57537.240 -21.936 -0.019 -22.046 -0.017 -21.847 -0.010 -21.837 -0.009 -21.664 -0.012 -21.436 -0.017 14.466 0.854 3.464 0.249 44.573 44.015
57541.220 -21.884 -0.019 -22.110 -0.016 -21.941 -0.009 -21.933 -0.009 -21.777 -0.013 -21.559 -0.017 13.482 0.656 3.933 0.247 44.561 43.926
57542.210 -21.863 -0.019 -22.119 -0.015 -21.959 -0.009 -21.951 -0.008 -21.798 -0.013 -21.584 -0.018 13.254 0.608 4.048 0.243 44.557 43.898
57543.240 -21.838 -0.019 -22.125 -0.015 -21.975 -0.009 -21.966 -0.008 -21.817 -0.013 -21.607 -0.018 13.022 0.559 4.168 0.238 44.551 43.866
57546.290 -21.742 -0.019 -22.127 -0.015 -22.006 -0.009 -21.997 -0.008 -21.858 -0.014 -21.661 -0.020 12.358 0.432 4.521 0.220 44.531 43.762
57547.210 -21.707 -0.019 -22.122 -0.015 -22.011 -0.009 -22.001 -0.008 -21.866 -0.015 -21.673 -0.021 12.162 0.401 4.627 0.216 44.523 43.732
57548.180 -21.667 -0.019 -22.114 -0.016 -22.014 -0.010 -22.004 -0.009 -21.873 -0.015 -21.684 -0.022 11.957 0.374 4.738 0.214 44.515 43.703
57529.690 -21.883 -0.033 -21.809 -0.028 -21.566 -0.021 -21.538 -0.019 -21.330 -0.021 -21.095 -0.023 16.759 1.178 2.581 0.198 44.573 44.079
57531.680 -21.915 -0.026 -21.885 -0.023 -21.652 -0.016 -21.632 -0.014 -21.433 -0.016 -21.199 -0.019 16.104 1.095 2.807 0.214 44.577 44.071
57533.230 -21.932 -0.023 -21.938 -0.020 -21.713 -0.013 -21.697 -0.012 -21.507 -0.013 -21.273 -0.018 15.616 1.033 2.988 0.226 44.578 44.062
57537.600 -21.933 -0.019 -22.054 -0.016 -21.857 -0.010 -21.848 -0.009 -21.676 -0.012 -21.449 -0.017 14.372 0.837 3.507 0.250 44.573 44.009
57541.480 -21.879 -0.019 -22.113 -0.015 -21.946 -0.009 -21.938 -0.009 -21.782 -0.013 -21.566 -0.017 13.421 0.643 3.963 0.246 44.560 43.919
57545.370 -21.774 -0.019 -22.129 -0.015 -21.999 -0.009 -21.990 -0.008 -21.848 -0.014 -21.647 -0.020 12.555 0.467 4.415 0.225 44.538 43.794
57547.370 -21.700 -0.019 -22.121 -0.015 -22.011 -0.009 -22.002 -0.008 -21.868 -0.015 -21.675 -0.021 12.128 0.396 4.645 0.215 44.522 43.727
57550.590 -21.557 -0.019 -22.084 -0.016 -22.011 -0.011 -22.002 -0.010 -21.879 -0.016 -21.703 -0.025 11.454 0.335 5.014 0.221 44.489 43.655
57553.280 -21.415 -0.021 -22.032 -0.018 -21.992 -0.014 -21.985 -0.012 -21.873 -0.017 -21.710 -0.029 10.915 0.324 5.312 0.251 44.455 43.637
57556.900 -21.195 -0.025 -21.933 -0.022 -21.941 -0.019 -21.939 -0.016 -21.843 -0.020 -21.701 -0.033 10.253 0.326 5.676 0.304 44.404 43.625
57559.420 -21.025 -0.030 -21.845 -0.025 -21.889 -0.023 -21.895 -0.019 -21.811 -0.022 -21.683 -0.035 9.837 0.322 5.899 0.337 44.366 43.606
57562.180 -20.827 -0.036 -21.733 -0.030 -21.818 -0.028 -21.836 -0.024 -21.766 -0.024 -21.653 -0.036 9.415 0.310 6.118 0.361 44.321 43.569
57591.720 -18.650 -0.111 -20.012 -0.085 -20.518 -0.085 -20.927 -0.107 -21.113 -0.154 -21.065 -0.232 6.458 0.059 7.814 0.203 43.879 42.682
57595.020 -18.477 -0.129 -19.822 -0.097 -20.358 -0.097 -20.827 -0.131 -21.047 -0.194 -20.991 -0.294 6.340 0.104 7.664 0.369 43.830 42.896
57529.690 -21.883 -0.033 -21.809 -0.028 -21.566 -0.021 -21.538 -0.019 -21.330 -0.021 -21.095 -0.023 16.759 1.178 2.581 0.198 44.573 44.079
57531.680 -21.915 -0.026 -21.885 -0.023 -21.652 -0.016 -21.632 -0.014 -21.433 -0.016 -21.199 -0.019 16.104 1.095 2.807 0.214 44.577 44.071
57533.330 -21.932 -0.022 -21.941 -0.020 -21.717 -0.013 -21.701 -0.012 -21.511 -0.013 -21.277 -0.018 15.585 1.029 3.000 0.227 44.578 44.061
57537.560 -21.934 -0.019 -22.053 -0.016 -21.856 -0.010 -21.846 -0.009 -21.675 -0.012 -21.448 -0.017 14.382 0.839 3.502 0.250 44.573 44.010
57541.480 -21.879 -0.019 -22.113 -0.015 -21.946 -0.009 -21.938 -0.009 -21.782 -0.013 -21.566 -0.017 13.421 0.643 3.963 0.246 44.560 43.919
57543.400 -21.833 -0.019 -22.126 -0.015 -21.977 -0.009 -21.969 -0.008 -21.820 -0.013 -21.610 -0.018 12.986 0.552 4.187 0.237 44.551 43.861
57547.370 -21.700 -0.019 -22.121 -0.015 -22.011 -0.009 -22.002 -0.008 -21.868 -0.015 -21.675 -0.021 12.128 0.396 4.645 0.215 44.522 43.727
57550.580 -21.557 -0.019 -22.084 -0.016 -22.011 -0.011 -22.002 -0.010 -21.879 -0.016 -21.703 -0.025 11.456 0.335 5.013 0.221 44.489 43.655
57556.860 -21.197 -0.025 -21.934 -0.022 -21.942 -0.019 -21.940 -0.016 -21.844 -0.020 -21.701 -0.033 10.260 0.326 5.673 0.304 44.405 43.625
57559.420 -21.025 -0.030 -21.845 -0.025 -21.889 -0.023 -21.895 -0.019 -21.811 -0.022 -21.683 -0.035 9.837 0.322 5.899 0.337 44.366 43.606
57562.180 -20.827 -0.036 -21.733 -0.030 -21.818 -0.028 -21.836 -0.024 -21.766 -0.024 -21.653 -0.036 9.415 0.310 6.118 0.361 44.321 43.569
57591.720 -18.650 -0.111 -20.012 -0.085 -20.518 -0.085 -20.927 -0.107 -21.113 -0.154 -21.065 -0.232 6.458 0.059 7.814 0.203 43.879 42.682
57595.020 -18.477 -0.129 -19.822 -0.097 -20.358 -0.097 -20.827 -0.131 -21.047 -0.194 -20.991 -0.294 6.340 0.104 7.664 0.369 43.830 42.896
